SPECTRUM DATA FILE
SpectrumCount:	7
PixelCount:	2500
UserName:	Atto
SampleName:	
LightSource:	
Comments:	
DeviceName:	Qmini
DeviceManufacturer:	RGB Photonics
DeviceSerialNo:	20020

Name:	press0_2	press0_4	press0_6	press0_8	press1_0	press1_2	press1_4
Date:	2022-02-16T16:39:57.0793301+00:00	2022-02-16T16:41:53.4875983+00:00	2022-02-16T16:42:37.8891153+00:00	2022-02-16T16:43:58.5908464+00:00	2022-02-16T16:44:44.0927301+00:00	2022-02-16T16:47:09.5960090+00:00	2022-02-16T16:48:10.2987359+00:00
ExposureTime:	0.1	0.1	0.1	0.1	0.1	0.1	0.1
TemporalAvg:	10	10	10	10	10	10	10
IntensityUnit:	ADCvalue	ADCvalue	ADCvalue	ADCvalue	ADCvalue	ADCvalue	ADCvalue
CCDLoadLevel:	0.2710881	0.222379	0.1448925	0.08582424	0.06430244	0.06372198	0.05398405
Temperature:	24.6405	24.53796	24.53796	24.6405	24.53796	24.6405	24.53796
DiagramColor:	200	16711680	49152	16711935	42495	12632064	3368611
ProcessingSteps:	783	783	783	783	783	783	783

Wavelength [nm]	Intensity1	Intensity2	Intensity3	Intensity4	Intensity5	Intensity6	Intensity7
181.1781	0.4784232	1.169722	2.990726	3.113513	-18.49109	-17.07711	-14.60216
181.5213	-11.63027	6.294482	1.329452	-5.952988	-10.53585	-19.71974	-15.72443
181.8645	-9.369838	14.39221	4.799933	-8.137982	-3.07553	-17.04514	2.589874
182.2076	-19.08309	16.36807	0.8010952	-24.26783	1.962724	-27.14523	4.851031
182.5508	-0.6065516	11.55689	-1.828912	-16.64106	4.915912	-14.36163	1.547154
182.8939	-2.156841	2.4767	-26.37721	-16.32162	-0.01916421	-17.89282	0.06505119
183.2371	9.055174	-4.258173	-29.72626	-8.061479	-6.408547	-3.587597	10.34296
183.5802	-0.1337622	-10.37234	-24.09714	-18.04628	-13.05152	-13.07466	2.824375
183.9234	-22.59319	-10.91153	-22.26282	-37.45146	-23.29762	-32.57151	-23.43515
184.2665	95.75067	119.1361	101.2985	89.46137	96.07949	79.05695	101.0918
184.6096	136.7787	156.6943	142.9686	129.4068	135.1271	132.2225	141.2944
184.9527	96.21691	94.37572	88.69511	83.87626	86.4181	94.44675	92.65875
185.2958	-16.26692	-12.46555	-28.92164	-24.1272	-15.36212	-18.72698	-21.18503
185.6389	-1.388123	14.88779	-13.44411	-9.377823	4.076108	-5.663501	10.07032
185.982	-3.957916	7.439805	-0.111661	-1.810964	1.371217	-3.03366	5.015797
186.3251	-5.065604	-12.4998	2.157351	-5.49769	-0.6708716	-5.884562	-7.085346
186.6682	-1.253211	0.8667597	10.40317	0.9897259	4.700274	-4.964104	0.3695097
187.0112	-4.24526	15.26734	-1.706963	-20.56648	-5.813065	-7.916993	7.043006
187.3543	-5.766787	10.64343	-3.160212	-20.75956	-10.06257	-0.4996261	2.659524
187.6973	-0.786992	-6.241495	-7.537301	-25.93232	-3.895723	-3.843278	-3.98361
188.0404	-5.186566	-16.78954	-10.2097	-2.649032	0.4150559	-4.670882	-3.785544
188.3834	7.361997	-7.676878	-11.48971	6.78475	-13.64693	-18.37932	-0.5933844
188.7265	3.586026	3.599113	-4.06645	5.407615	-18.97679	-20.24218	5.515486
189.0695	5.689473	-0.3661006	9.192255	-18.26812	-11.62841	-20.6235	0.7543782
189.4125	-1.687665	-10.86445	14.34367	-18.17283	-0.5407794	-1.376016	-6.941357
189.7555	0.9230978	-1.078483	4.780395	-20.74531	10.43237	-13.42447	-8.24312
190.0985	-3.088782	6.973353	-0.9200468	-16.65788	8.617778	-12.74749	-4.465783
190.4415	-4.574995	1.96253	-9.969053	-34.91595	3.225331	-18.87154	-1.019252
190.7845	-1.764281	-4.745756	-10.09749	-23.21104	-0.8471848	-5.069934	4.083162
191.1275	-12.21343	7.41402	-14.47291	-36.35875	4.076974	-22.98152	-3.345229
191.4705	-8.32362	5.190183	2.41718	-24.89422	3.041665	-8.974024	-5.847456
191.8134	-12.81418	9.580274	-6.789476	-33.92266	4.336032	-21.7249	-5.624713
192.1564	-7.707412	7.190048	-10.67215	-22.33142	5.87083	-9.858361	0.8557181
192.4993	-16.34615	7.967986	-13.67713	-23.67085	7.750825	-19.13887	-10.22823
192.8423	-15.11564	0.8405682	2.08727	-15.16579	4.318653	2.638486	-10.94673
193.1852	-5.848187	-5.269358	-2.504197	-14.37946	-4.419503	-3.265576	-8.864465
193.5282	-0.01577578	10.71468	-11.05724	-12.70239	-5.644153	6.295826	0.9081126
193.8711	0.5425849	17.91121	-17.68933	-11.87533	-1.437936	-3.036283	2.3813
194.214	-7.624557	11.32486	-11.90876	-14.69383	5.211668	-9.691826	-0.8490111
194.5569	-11.14459	-11.49806	-0.2282562	-27.67571	-0.5953876	-19.52762	-7.557831
194.8998	-14.94841	-9.905632	12.33383	-23.24829	4.429586	-16.31103	-5.823606
195.2427	-11.89895	8.614132	1.648126	-36.57724	5.483606	-29.29676	-1.655402
195.5856	-0.6012214	11.83737	-4.88959	-20.29475	9.418484	-26.32819	-1.278954
195.9285	2.073357	1.94679	-2.902664	-17.19001	-2.780776	-10.27304	-4.816863
196.2713	-1.732308	-3.714097	6.428372	-4.363435	-0.8861982	-5.117261	-3.072036
196.6142	-8.305682	-2.202357	-9.140036	-11.74781	-3.825691	-18.97582	4.313377
196.9571	-6.347809	-0.3362048	-11.10341	-3.349469	2.5017	-20.75333	10.67572
197.2999	-9.849369	-5.203221	1.109118	-5.511557	2.453547	-0.9523557	11.51045
197.6428	-5.023356	7.264134	10.23622	-1.89877	11.21782	0.2658628	12.435
197.9856	2.117614	4.106704	-3.212969	8.954275	4.222897	-4.395441	5.897089
198.3284	7.165017	4.915684	-4.478066	5.779462	5.843794	-14.83909	-2.031838
198.6712	0.2176736	-6.897833	-6.350929	-3.537716	1.641275	-3.986719	-12.85058
199.0141	5.736346	-0.5759394	-2.045531	4.121418	3.68248	3.734788	-1.432588
199.3569	1.539771	4.970224	-15.43978	8.103433	-1.606271	3.686718	-2.282985
199.6997	-1.431716	15.10586	-3.719171	2.347016	-0.6341242	-0.2530709	-10.44976
200.0424	-14.56452	18.19304	-4.762559	-14.48501	-3.226832	-7.363143	-16.28925
200.3852	-9.573003	21.86387	5.218505	-15.19315	1.016921	-7.203415	-7.423053
200.728	-5.683306	7.353892	-10.11653	-10.34052	5.490571	-10.22022	-10.68514
201.0708	-1.946396	6.968761	-8.357381	-6.500425	6.841654	-12.29807	-3.374988
201.4135	-6.491371	0.3319129	-10.29147	-3.625036	5.48608	-7.053197	-4.488708
201.7563	-4.069113	-1.431403	-7.863742	-22.00166	3.8976	-7.94407	-9.224288
202.0991	-2.757513	-10.28554	-12.93859	-26.28164	-5.648428	-16.313	-24.73732
202.4418	1.768828	5.967937	-8.068361	-9.172283	-6.331955	-21.02266	-13.05277
202.7845	8.309612	1.107134	-4.684135	7.96563	-2.704124	-7.667584	-9.332562
203.1273	9.131387	-1.289065	-5.018839	-4.857646	3.248	-2.546337	5.815217
203.47	-0.6679687	-9.916039	-1.071091	-14.7938	-0.01210414	3.457569	-3.075559
203.8127	4.285621	-4.90993	6.914345	-9.03861	-5.439791	7.87035	-9.279436
204.1554	7.133815	-9.206237	3.483499	-19.58398	-7.400583	4.563831	-13.09003
204.4981	-1.794225	3.039237	-4.794866	-25.44919	1.857242	-7.834461	11.86811
204.8408	-11.14567	6.0097	-12.76752	-23.38803	2.256303	-15.80693	14.16674
205.1835	-1.513254	6.58888	-7.587873	-5.731025	-0.6810197	-9.52113	15.75868
205.5261	6.9459	0.6417273	-13.23992	-3.053645	3.148839	-3.865254	-0.6543314
205.8688	6.454708	1.621426	-4.09625	-7.746793	11.81108	-3.056644	-6.483111
206.2115	-3.158892	1.555657	-3.06075	-24.77152	11.51357	-13.66758	-10.49566
206.5541	0.0335423	6.095146	0.05793264	-22.46117	7.329807	-13.54252	3.430121
206.8967	0.7598687	6.117264	-10.44335	-7.55767	6.117834	-15.75802	11.10901
207.2394	13.39705	-1.91638	-9.703796	0.691934	-2.072166	-6.120916	12.03512
207.582	3.265138	-8.296555	-6.578487	-8.861259	1.03823	-0.8340829	8.114548
207.9246	2.11652	-0.08466975	-2.490372	-20.19158	8.521564	-3.359752	-2.221352
208.2673	-8.359701	11.62344	-7.009402	-12.75601	14.17276	-12.53144	-15.6797
208.6099	-2.677536	9.923985	-10.21591	-7.662291	4.277962	-10.69001	-14.29115
208.9525	-6.086517	0.224546	-10.75712	-12.6224	-1.161374	-19.41791	-5.534883
209.2951	4.072876	0.4219122	-8.593695	-10.69902	1.13275	-18.24399	0.3159134
209.6376	0.3387849	3.426276	-10.83401	-11.39396	8.17829	-17.78998	-10.05635
209.9802	1.477588	8.754432	-5.721662	1.43967	-0.650364	-10.3964	-10.17445
210.3228	-3.466755	5.697773	-3.060864	-5.341136	0.1017634	-13.5026	1.766016
210.6653	2.338308	-4.487821	-3.083104	-0.4023629	3.492126	-3.613941	8.391703
211.0079	-2.693793	-16.13898	-1.474387	-8.576449	6.396703	-5.870704	0.4565044
211.3504	3.107196	-0.4998886	-7.024312	-16.96024	-3.648929	-23.79445	-7.806548
211.693	-3.760523	12.15641	-11.86337	-24.9828	-4.792493	-24.65812	-2.370481
212.0355	0.1205478	2.75967	-13.96609	-10.96954	-2.876502	-9.357798	-0.08562446
212.3781	-1.326675	-11.948	-9.293488	-2.859256	0.3126362	-1.117838	-9.065204
212.7206	2.361681	-6.721516	-10.34188	-5.885635	-1.420699	-10.29093	-9.951771
213.0631	3.17177	-3.70908	-12.99583	-5.492791	-5.148724	-8.456208	-12.02743
213.4056	6.618047	2.655969	-7.122619	-0.07409789	-13.20986	-1.564881	-14.88108
213.7481	11.0636	-2.319154	0.5680101	-8.647949	-9.374149	-5.919392	-21.23584
214.0906	0.4923052	2.121334	3.802568	-14.01293	-1.997133	-12.60159	-11.20987
214.433	-10.39133	1.538391	-15.71144	-23.27854	7.55498	-21.54641	3.715476
214.7755	-16.81654	15.3508	-25.48441	-20.24577	4.911067	-16.81853	7.114512
215.118	-5.979754	6.146287	-12.70652	-16.76103	2.936203	-11.23158	-0.7261262
215.4604	2.966955	4.861636	7.108267	-7.133684	-4.071476	1.231657	-3.247558
215.8029	1.738398	-0.198048	1.140692	-13.95428	-4.49445	-4.859085	-8.765781
216.1453	0.4130741	4.865878	-4.008808	-7.263989	-0.6240393	-5.6358	-10.94226
216.4878	-1.359652	3.413016	-0.568488	-3.250826	3.517282	-10.23384	-11.38275
216.8302	2.888338	15.51614	0.8904928	5.281119	6.725559	-5.54301	7.050833
217.1726	1.75134	23.82007	-8.638201	-4.276692	-5.97781	-4.197078	0.9970834
217.515	5.687535	15.29198	-0.9084839	-10.64908	0.507619	-4.955193	-4.490031
217.8574	-1.826783	1.423346	0.0464834	-8.946897	0.6908275	-10.60221	-15.95051
218.1998	-1.436061	1.206097	1.67204	5.264115	9.891613	-8.574615	-11.67227
218.5422	3.617833	5.533129	-2.364393	1.100965	-3.131554	-3.183488	-20.73206
218.8846	14.45439	9.317373	-0.9796402	-14.07378	-3.966667	3.401929	-10.24143
219.227	16.19585	4.245658	-14.01527	-16.77736	-1.223155	10.1424	5.082086
219.5694	12.19785	1.081321	-6.571672	-7.36005	-3.332781	6.781559	10.97558
219.9117	6.401367	-4.832144	7.889358	1.158643	-0.484432	-9.43166	-4.264049
220.2541	1.276075	-2.239076	9.1422	4.126498	6.632385	-24.40129	-17.96444
220.5964	-2.341252	-0.5019801	-11.56567	-0.1975048	8.706131	-25.10139	-27.06331
220.9387	-9.312338	13.46743	-19.26802	-7.261477	-5.25165	-22.99096	-19.58155
221.2811	-18.17971	14.67404	-3.045617	-4.211124	-7.605412	-11.64779	-5.886949
221.6234	-16.82113	17.72623	3.671928	-3.500708	1.571303	-11.93709	0.6230839
221.9657	-6.943165	6.481221	-5.041222	-3.05742	-2.943185	-10.98554	-4.577466
222.308	4.600357	4.670544	-19.21976	-15.54335	0.33816	-13.38567	0.8992375
222.6503	-5.322389	2.863182	-10.02109	-19.68102	-7.566607	-11.4971	7.205839
222.9926	-9.625713	14.30257	2.634171	-13.37933	-2.074427	-9.74577	-2.360234
223.3349	-15.35758	23.71832	-0.8696223	-8.616037	-10.12493	-19.725	-8.208019
223.6772	-10.80034	26.31424	-2.0059	-8.42742	-6.062131	-18.64102	-7.602433
224.0194	-6.232435	16.30167	-9.801909	-13.80183	-9.929998	-14.09618	0.3027031
224.3617	8.654675	6.285461	-11.89025	-6.567502	-1.415398	2.898349	-11.75875
224.7039	11.92391	-1.331808	-13.18765	-3.372411	-2.718651	3.504575	-10.97426
225.0462	5.114516	10.99403	-1.67362	1.150553	-1.745569	1.591373	-9.298164
225.3884	-2.593595	7.173227	-13.16237	-16.65507	-2.139924	-8.30246	3.347681
225.7307	-5.141639	3.295918	-24.97804	-13.45171	-2.695817	-6.77226	8.095564
226.0729	-4.011073	-6.325384	-22.06358	-15.666	-16.49354	-5.479465	8.843681
226.4151	0.2784503	2.093508	-14.17453	2.454396	-6.952187	2.139853	-1.163532
226.7573	-3.646698	7.804193	-6.754769	-1.803765	-11.09545	-12.84934	-10.28747
227.0995	1.723124	6.146089	-0.3717613	9.84622	-2.361105	-4.249857	0.4397965
227.4417	2.479111	-3.125727	8.783629	-1.50279	-15.09889	-7.941734	2.420576
227.7839	7.146177	-7.904118	1.50525	-3.568902	-0.14364	-9.186337	3.535462
228.1261	-0.2608835	4.673282	-5.126988	-22.13808	-6.373661	-30.08886	-12.68057
228.4682	-11.35619	17.3583	-1.737007	-23.75175	2.495397	-29.77682	-15.92598
228.8104	-23.35308	22.08204	0.8450069	-20.82203	-5.500744	-24.8405	-20.07558
229.1525	-9.898006	12.48859	-3.338986	-12.63319	5.846353	-12.94856	-11.26664
229.4947	1.91749	6.065836	-3.544083	-12.96072	2.303063	-11.62082	-17.08715
229.8368	3.058617	-0.358525	3.64518	-2.748073	1.468694	-4.154609	-9.236955
230.179	-4.874161	5.854214	-4.306325	-3.909302	-0.02888052	-6.471947	-4.210387
230.5211	-6.999664	2.390755	-15.76882	-3.062441	1.008728	-3.870654	1.024954
230.8632	-8.491212	1.29037	-15.15508	-2.34413	0.2897918	-11.24158	-7.558187
231.2053	2.486229	-4.129628	-15.82089	2.763609	-0.268347	-13.06881	1.117581
231.5474	17.79176	3.735774	5.759583	8.669448	16.25572	-15.25149	8.776314
231.8895	9.432971	14.11868	12.99944	-6.06181	8.997236	-21.19847	1.233884
232.2316	1.002093	12.64017	6.479315	-7.810221	3.130083	-21.71811	-2.833901
232.5737	7.943886	7.17561	-14.48622	-9.784221	2.585037	-24.48726	7.038584
232.9157	6.639375	5.202565	-10.12934	-6.462591	4.726364	-24.58166	8.946203
233.2578	-0.3564416	5.170491	-1.6767	-8.532355	-5.930972	-20.01716	-4.813891
233.5999	-0.5059216	2.298649	3.165125	1.553196	-11.57513	-4.406901	-16.49493
233.9419	12.34868	0.5631132	-2.156838	5.030087	-5.766196	10.16581	-6.642769
234.2839	4.05061	3.78796	-8.044121	-6.352937	5.140366	-0.2375574	-0.966993
234.626	-5.403022	0.676233	2.748938	-1.52778	5.16415	2.723154	0.876253
234.968	-8.374261	-1.318781	0.1764727	-2.622821	-1.880757	-1.882956	-4.795575
235.31	4.829119	6.128823	-8.414876	-1.986564	-13.79346	1.161912	0.03564857
235.652	-0.2456741	12.83942	-15.25729	-25.43606	-13.31317	-21.54326	-0.3992926
235.994	-3.595021	7.536322	-10.64849	-16.74599	-3.073915	-16.08549	-0.4482642
236.336	-11.87446	-6.398262	-15.67672	-7.635952	0.6596051	-15.22026	-10.18926
236.678	5.610483	6.405464	-11.72511	12.39705	3.384522	-3.932288	-5.084558
237.02	0.6998799	13.7024	-14.8595	-15.74075	5.118782	-6.745192	-3.555527
237.3619	-1.804093	11.47034	-11.4392	-10.48637	7.206419	3.853375	-1.128863
237.7039	-14.74129	2.342849	-15.71739	-17.06944	-3.514592	0.2581224	1.009129
238.0459	-3.58047	5.424092	-7.672611	-12.9917	-7.774589	-0.01965048	-0.3831732
238.3878	5.637103	12.25197	-9.244737	-26.29108	-0.1505753	-3.406111	-1.040383
238.7297	3.287423	8.253177	-0.2584379	-9.851228	-0.9650673	0.2997231	0.433672
239.0717	-9.515795	-6.044697	-1.914274	-2.254518	-15.19952	-11.19856	5.299128
239.4136	1.225982	-0.1238143	-4.365672	-2.557095	-8.493904	-8.407184	-0.7163802
239.7555	16.50144	6.598977	-12.80217	-5.593991	10.08455	-5.580184	-4.646262
240.0974	27.53654	0.8217841	-4.414743	-2.194553	15.14622	-6.69137	2.50776
240.4393	13.72645	-9.909771	10.74459	-0.7689413	-12.99174	-14.01003	-1.323449
240.7812	3.040105	2.045293	13.92714	-5.796196	-26.17825	-19.22648	-1.454312
241.1231	-1.475348	6.597385	-4.562589	-8.837708	-18.58944	-18.63128	-7.571084
241.465	12.62971	9.904987	-7.903429	-12.08802	-4.234603	-22.24901	-2.821283
241.8068	1.541432	21.39962	-8.288988	-34.1045	-0.9022866	-31.23338	-12.25976
242.1487	-8.051247	27.30545	-0.9864538	-34.65589	5.944598	-36.13202	-13.85908
242.4905	-11.07733	9.444363	-13.02224	-25.63544	17.14316	-26.90614	-17.38357
242.8324	3.538949	7.675437	-3.663373	-11.84857	17.22621	-3.725392	-2.800384
243.1742	1.806229	13.4226	-3.17808	-12.94431	-0.7790259	-9.025251	2.071046
243.5161	-1.433289	16.1164	0.1617419	-5.034599	-16.03869	-20.85288	14.22185
243.8579	-21.08274	17.24287	-14.28586	-31.40311	-8.836561	-38.68889	7.841969
244.1997	-12.96602	25.93	-16.33787	-37.62448	0.9532266	-29.47622	-4.038524
244.5415	-4.139976	15.55439	-20.54808	-16.39513	-2.314637	-20.71147	-5.819237
244.8833	14.56666	-4.615042	-9.635906	15.07195	-3.534451	-14.80665	2.901515
245.2251	10.16606	-3.453832	-2.095867	-3.312092	3.025847	-18.27308	4.002592
245.5669	3.955566	6.621144	9.962888	-11.37159	6.874352	-19.81562	3.024037
245.9086	-6.000416	4.042998	9.575246	-9.290985	-7.59357	-16.27089	2.069357
246.2504	-4.895174	-3.768207	10.41093	-3.164451	-9.146505	-8.029681	-8.985154
246.5922	-8.292413	-0.8273246	-9.455143	-7.494384	-4.61379	-2.162319	-8.808937
246.9339	-17.04044	12.96896	-16.53883	-5.207451	5.046626	1.023894	-3.043839
247.2757	-14.15027	11.59205	-16.1757	-6.209082	4.992239	-7.357432	-6.270767
247.6174	-5.005281	-0.6945495	3.096752	-23.13143	7.421429	-5.034094	-6.945736
247.9591	1.799014	-5.44163	-4.743321	-18.20829	6.86386	-12.56882	-4.249497
248.3008	-2.750287	-4.028407	-8.026102	-15.15746	2.755386	-6.906104	1.768549
248.6425	-11.89853	-0.7331558	-15.73685	-6.59778	4.415802	4.159178	-10.2431
248.9843	-5.252835	5.416352	-9.173591	-8.090921	2.379394	8.681498	-11.29629
249.3259	0.155691	12.82131	-5.19874	0.05481224	-1.181711	-6.68878	-17.25799
249.6676	4.983735	9.299584	5.477139	9.582814	-5.430148	-12.56551	-3.574728
250.0093	3.502512	0.4712204	1.240733	8.360461	-2.448194	-14.48798	-6.664443
250.351	4.324196	0.163515	-10.20279	-3.685323	7.125288	-11.32461	4.667465
250.6926	-1.952585	3.854598	-14.55314	-14.82345	6.693471	-14.31721	9.689828
251.0343	0.5081592	0.706064	-0.4235933	-9.139837	8.54524	-2.242728	4.219426
251.3759	-0.01769838	2.17913	3.250469	-6.71873	8.969991	-0.04614832	-21.24513
251.7176	3.032017	9.107699	9.428758	-16.1268	11.869	9.197508	-20.89129
252.0592	-0.9640381	6.721362	6.55548	-20.49809	5.058581	2.099653	-11.57241
252.4008	-5.338574	1.353658	3.597092	-19.48798	-10.489	-8.935659	0.5676473
252.7425	-8.346536	3.014645	-10.80259	-19.39675	-17.17675	-17.91069	3.349499
253.0841	-1.315925	8.543104	-9.800377	-18.8773	-17.63029	-9.374576	3.111504
253.4257	-8.51122	16.77952	-5.072713	-32.20176	-1.947271	-18.63756	-1.86493
253.7673	-7.620573	21.99383	4.434141	-18.31303	-0.08682727	-23.43414	0.3073801
254.1088	-5.12095	20.31146	-7.835872	-13.08419	-6.745466	-31.39763	4.104953
254.4504	8.524552	12.66697	-13.03409	7.12461	-10.23137	-13.30259	7.697761
254.792	2.174874	3.19274	-6.687293	-0.9978189	-1.493147	-12.4457	4.929481
255.1335	-1.680846	0.4424816	6.162957	0.01824222	12.14793	-9.411715	-2.735321
255.4751	-10.417	11.18416	7.044572	-14.02977	6.520205	-10.11817	-14.47985
255.8167	-3.369745	21.17901	2.512421	-4.612629	-3.504339	-3.954212	-4.813157
256.1582	6.387789	7.708198	3.712308	-0.08666053	-6.524149	-2.287272	3.464061
256.4997	9.72606	-3.559131	3.109348	6.568217	2.307637	1.574426	8.382561
256.8412	15.65386	-2.499196	5.532535	-6.603289	7.043104	0.9695786	1.928824
257.1827	10.78258	8.399213	-1.024925	-5.075469	-6.123449	1.949733	1.335287
257.5243	1.563633	6.881096	-13.96903	-6.244955	-12.66581	-6.611028	-3.189993
257.8658	-4.244409	3.379149	-17.07442	1.168368	-12.53334	-9.959474	-9.093142
258.2072	-4.6977	5.90692	-10.78193	-17.55406	-1.168476	-25.09476	-6.479783
258.5487	13.64148	2.802468	-3.042326	-9.163757	8.392921	-14.19024	2.11386
258.8902	10.40208	1.440639	1.004757	-7.467844	9.552023	-9.741254	6.076102
259.2317	3.852004	1.453975	-2.77544	-5.495729	10.09392	-2.800061	3.715878
259.5731	-3.369685	11.8716	-0.7059822	-25.60505	2.715445	-9.385553	-9.283814
259.9146	5.108521	8.561739	-2.137495	-7.253995	9.070177	1.135729	-8.27559
260.256	-3.463618	8.134149	2.076293	-4.303741	-1.293499	2.286071	-7.172678
260.5974	-16.67224	13.93759	4.746068	3.888925	-3.075867	-3.402396	-7.399758
260.9388	-4.972489	15.8925	3.988554	-12.77748	-4.278262	-17.03552	-12.25781
261.2803	6.352886	10.10377	1.3324	3.666428	0.8723993	-8.511649	-3.551808
261.6217	9.927532	-2.225054	-12.6005	-6.149892	-5.008225	-9.936287	1.613331
261.9631	10.09954	-0.5138658	-10.7798	-9.096645	8.264085	-13.15983	-5.901661
262.3045	1.266474	-0.1432859	-10.14336	-17.51289	11.86736	-15.28187	-13.08636
262.6458	4.847299	14.74585	3.199375	2.591876	10.85383	-2.607424	-4.946065
262.9872	-3.315138	15.78084	-13.66346	2.060992	-12.89281	-12.69272	2.933401
263.3286	8.826328	0.1847424	-13.32485	2.477804	-5.559201	-14.21731	7.446279
263.67	10.19965	-9.121541	-10.99428	-1.544969	-9.259715	-10.94182	-6.771718
264.0113	6.318441	4.10016	2.6108	-8.030643	1.499787	-7.316425	-9.740898
264.3527	-4.897418	10.55666	-12.06291	-16.30973	-1.528489	-9.010498	-14.4186
264.694	-5.833746	8.106678	-17.83733	-5.717165	14.77753	-16.15195	2.026671
265.0353	-5.403137	7.979505	-19.35046	-3.058827	10.92493	-16.25523	11.5866
265.3766	-20.40001	10.5137	-16.75136	-13.70802	10.71194	-17.95918	14.23069
265.718	-11.62453	7.192359	-10.14439	-16.82644	3.254199	-13.11671	0.1146533
266.0593	-5.25114	4.463528	2.322507	-1.415086	6.373293	-17.25807	-4.283122
